#FORMAT	     : EMSA/MAS Spectral Data File
#VERSION     : 1.0
#TITLE       : Al(Ga)_Al_L3_Wilfried_Sigle_171
#DATE        : 
#TIME        : 
#OWNER       : eelsdatabase.net
#NPOINTS     : 1340
#NCOLUMNS    : 1
#XUNITS      : eV
#YUNITS      : 
#DATATYPE    : XY
#XPERCHAN    : 0.1
#OFFSET      : 5.520000e+001
#SIGNALTYPE  : ELS
#SPECTRUM    : Spectral Data Starts Here
5.520000e+001, 1.725140e+005
5.530000e+001, 1.718520e+005
5.540000e+001, 1.708570e+005
5.550000e+001, 1.700860e+005
5.560000e+001, 1.688850e+005
5.570000e+001, 1.681930e+005
5.580000e+001, 1.672520e+005
5.590000e+001, 1.656310e+005
5.600000e+001, 1.652430e+005
5.610000e+001, 1.645640e+005
5.620000e+001, 1.634060e+005
5.630000e+001, 1.620010e+005
5.640000e+001, 1.614140e+005
5.650000e+001, 1.603800e+005
5.660000e+001, 1.600150e+005
5.670000e+001, 1.584720e+005
5.680000e+001, 1.578650e+005
5.690000e+001, 1.576660e+005
5.700000e+001, 1.563840e+005
5.710000e+001, 1.558960e+005
5.720000e+001, 1.552010e+005
5.730000e+001, 1.536720e+005
5.740000e+001, 1.527720e+005
5.750000e+001, 1.520340e+005
5.760000e+001, 1.516340e+005
5.770000e+001, 1.507480e+005
5.780000e+001, 1.498110e+005
5.790000e+001, 1.495810e+005
5.800000e+001, 1.487110e+005
5.810000e+001, 1.479900e+005
5.820000e+001, 1.476010e+005
5.830000e+001, 1.465560e+005
5.840000e+001, 1.452170e+005
5.850000e+001, 1.445900e+005
5.860000e+001, 1.433240e+005
5.870000e+001, 1.429730e+005
5.880000e+001, 1.410930e+005
5.890000e+001, 1.387280e+005
5.900000e+001, 1.382930e+005
5.910000e+001, 1.392690e+005
5.920000e+001, 1.401630e+005
5.930000e+001, 1.390960e+005
5.940000e+001, 1.380090e+005
5.950000e+001, 1.378910e+005
5.960000e+001, 1.371150e+005
5.970000e+001, 1.363080e+005
5.980000e+001, 1.363190e+005
5.990000e+001, 1.352410e+005
6.000000e+001, 1.353210e+005
6.010000e+001, 1.344650e+005
6.020000e+001, 1.338760e+005
6.030000e+001, 1.334540e+005
6.040000e+001, 1.323900e+005
6.050000e+001, 1.313490e+005
6.060000e+001, 1.308840e+005
6.070000e+001, 1.296200e+005
6.080000e+001, 1.289510e+005
6.090000e+001, 1.278190e+005
6.100000e+001, 1.252580e+005
6.110000e+001, 1.249150e+005
6.120000e+001, 1.242420e+005
6.130000e+001, 1.231760e+005
6.140000e+001, 1.222840e+005
6.150000e+001, 1.214220e+005
6.160000e+001, 1.205080e+005
6.170000e+001, 1.204260e+005
6.180000e+001, 1.200280e+005
6.190000e+001, 1.196450e+005
6.200000e+001, 1.190540e+005
6.210000e+001, 1.197060e+005
6.220000e+001, 1.190280e+005
6.230000e+001, 1.187100e+005
6.240000e+001, 1.178340e+005
6.250000e+001, 1.172210e+005
6.260000e+001, 1.162150e+005
6.270000e+001, 1.167640e+005
6.280000e+001, 1.162730e+005
6.290000e+001, 1.155220e+005
6.300000e+001, 1.156010e+005
6.310000e+001, 1.150360e+005
6.320000e+001, 1.142460e+005
6.330000e+001, 1.135940e+005
6.340000e+001, 1.129720e+005
6.350000e+001, 1.125100e+005
6.360000e+001, 1.120340e+005
6.370000e+001, 1.115860e+005
6.380000e+001, 1.110580e+005
6.390000e+001, 1.109630e+005
6.400000e+001, 1.102230e+005
6.410000e+001, 1.101770e+005
6.420000e+001, 1.092060e+005
6.430000e+001, 1.088220e+005
6.440000e+001, 1.082720e+005
6.450000e+001, 1.077390e+005
6.460000e+001, 1.072220e+005
6.470000e+001, 1.066580e+005
6.480000e+001, 1.061560e+005
6.490000e+001, 1.058350e+005
6.500000e+001, 1.054940e+005
6.510000e+001, 1.044870e+005
6.520000e+001, 1.039490e+005
6.530000e+001, 1.038010e+005
6.540000e+001, 1.029930e+005
6.550000e+001, 1.025010e+005
6.560000e+001, 1.024450e+005
6.570000e+001, 1.017830e+005
6.580000e+001, 1.006590e+005
6.590000e+001, 1.007400e+005
6.600000e+001, 1.005590e+005
6.610000e+001, 9.967500e+004
6.620000e+001, 9.889600e+004
6.630000e+001, 9.948800e+004
6.640000e+001, 9.861300e+004
6.650000e+001, 9.742100e+004
6.660000e+001, 9.770000e+004
6.670000e+001, 9.709200e+004
6.680000e+001, 9.705900e+004
6.690000e+001, 9.637300e+004
6.700000e+001, 9.613600e+004
6.710000e+001, 9.540500e+004
6.720000e+001, 9.505500e+004
6.730000e+001, 9.473300e+004
6.740000e+001, 9.438600e+004
6.750000e+001, 9.317000e+004
6.760000e+001, 9.334600e+004
6.770000e+001, 9.236700e+004
6.780000e+001, 9.168600e+004
6.790000e+001, 9.141100e+004
6.800000e+001, 9.107600e+004
6.810000e+001, 9.097100e+004
6.820000e+001, 9.070500e+004
6.830000e+001, 9.015000e+004
6.840000e+001, 8.971000e+004
6.850000e+001, 8.916900e+004
6.860000e+001, 8.875500e+004
6.870000e+001, 8.829800e+004
6.880000e+001, 8.793000e+004
6.890000e+001, 8.737800e+004
6.900000e+001, 8.713500e+004
6.910000e+001, 8.643600e+004
6.920000e+001, 8.627100e+004
6.930000e+001, 8.638000e+004
6.940000e+001, 8.579700e+004
6.950000e+001, 8.523700e+004
6.960000e+001, 8.533900e+004
6.970000e+001, 8.509600e+004
6.980000e+001, 8.445000e+004
6.990000e+001, 8.394200e+004
7.000000e+001, 8.353900e+004
7.010000e+001, 8.330300e+004
7.020000e+001, 8.345400e+004
7.030000e+001, 8.324500e+004
7.040000e+001, 8.270300e+004
7.050000e+001, 8.208900e+004
7.060000e+001, 8.116500e+004
7.070000e+001, 8.085200e+004
7.080000e+001, 8.043400e+004
7.090000e+001, 7.967900e+004
7.100000e+001, 7.958400e+004
7.110000e+001, 7.907700e+004
7.120000e+001, 7.873100e+004
7.130000e+001, 7.867500e+004
7.140000e+001, 7.787200e+004
7.150000e+001, 7.765300e+004
7.160000e+001, 7.747400e+004
7.170000e+001, 7.708800e+004
7.180000e+001, 7.728400e+004
7.190000e+001, 7.650900e+004
7.200000e+001, 7.564500e+004
7.210000e+001, 7.641800e+004
7.220000e+001, 7.592200e+004
7.230000e+001, 7.617600e+004
7.240000e+001, 7.572700e+004
7.250000e+001, 7.581400e+004
7.260000e+001, 7.680400e+004
7.270000e+001, 7.779900e+004
7.280000e+001, 8.031900e+004
7.290000e+001, 8.304900e+004
7.300000e+001, 8.502100e+004
7.310000e+001, 8.682600e+004
7.320000e+001, 8.947500e+004
7.330000e+001, 9.111700e+004
7.340000e+001, 9.226900e+004
7.350000e+001, 9.330700e+004
7.360000e+001, 9.397200e+004
7.370000e+001, 9.459800e+004
7.380000e+001, 9.495700e+004
7.390000e+001, 9.466900e+004
7.400000e+001, 9.435600e+004
7.410000e+001, 9.421800e+004
7.420000e+001, 9.405100e+004
7.430000e+001, 9.352000e+004
7.440000e+001, 9.337600e+004
7.450000e+001, 9.353500e+004
7.460000e+001, 9.350900e+004
7.470000e+001, 9.372500e+004
7.480000e+001, 9.319700e+004
7.490000e+001, 9.295100e+004
7.500000e+001, 9.295000e+004
7.510000e+001, 9.315500e+004
7.520000e+001, 9.273200e+004
7.530000e+001, 9.230500e+004
7.540000e+001, 9.234400e+004
7.550000e+001, 9.205300e+004
7.560000e+001, 9.208900e+004
7.570000e+001, 9.229300e+004
7.580000e+001, 9.153200e+004
7.590000e+001, 9.149900e+004
7.600000e+001, 9.199700e+004
7.610000e+001, 9.229800e+004
7.620000e+001, 9.182300e+004
7.630000e+001, 9.187600e+004
7.640000e+001, 9.289400e+004
7.650000e+001, 9.295000e+004
7.660000e+001, 9.268200e+004
7.670000e+001, 9.310800e+004
7.680000e+001, 9.352300e+004
7.690000e+001, 9.363900e+004
7.700000e+001, 9.366100e+004
7.710000e+001, 9.459500e+004
7.720000e+001, 9.453900e+004
7.730000e+001, 9.544500e+004
7.740000e+001, 9.517700e+004
7.750000e+001, 9.484800e+004
7.760000e+001, 9.536800e+004
7.770000e+001, 9.528000e+004
7.780000e+001, 9.500600e+004
7.790000e+001, 9.548300e+004
7.800000e+001, 9.569600e+004
7.810000e+001, 9.513300e+004
7.820000e+001, 9.504300e+004
7.830000e+001, 9.534000e+004
7.840000e+001, 9.558500e+004
7.850000e+001, 9.524900e+004
7.860000e+001, 9.563500e+004
7.870000e+001, 9.589100e+004
7.880000e+001, 9.683300e+004
7.890000e+001, 9.692100e+004
7.900000e+001, 9.682800e+004
7.910000e+001, 9.644100e+004
7.920000e+001, 9.679900e+004
7.930000e+001, 9.698900e+004
7.940000e+001, 9.751100e+004
7.950000e+001, 9.759000e+004
7.960000e+001, 9.851400e+004
7.970000e+001, 9.837900e+004
7.980000e+001, 9.833800e+004
7.990000e+001, 9.918400e+004
8.000000e+001, 9.980100e+004
8.010000e+001, 9.966500e+004
8.020000e+001, 9.882600e+004
8.030000e+001, 9.883600e+004
8.040000e+001, 9.907000e+004
8.050000e+001, 9.902400e+004
8.060000e+001, 9.894500e+004
8.070000e+001, 9.865700e+004
8.080000e+001, 9.760300e+004
8.090000e+001, 9.766900e+004
8.100000e+001, 9.783500e+004
8.110000e+001, 9.756800e+004
8.120000e+001, 9.792600e+004
8.130000e+001, 9.747000e+004
8.140000e+001, 9.752500e+004
8.150000e+001, 9.715200e+004
8.160000e+001, 9.748300e+004
8.170000e+001, 9.691100e+004
8.180000e+001, 9.668000e+004
8.190000e+001, 9.739400e+004
8.200000e+001, 9.656600e+004
8.210000e+001, 9.667100e+004
8.220000e+001, 9.660900e+004
8.230000e+001, 9.710400e+004
8.240000e+001, 9.686200e+004
8.250000e+001, 9.665200e+004
8.260000e+001, 9.720700e+004
8.270000e+001, 9.731200e+004
8.280000e+001, 9.712400e+004
8.290000e+001, 9.690600e+004
8.300000e+001, 9.702100e+004
8.310000e+001, 9.749400e+004
8.320000e+001, 9.749500e+004
8.330000e+001, 9.759600e+004
8.340000e+001, 9.776200e+004
8.350000e+001, 9.848900e+004
8.360000e+001, 9.852700e+004
8.370000e+001, 9.805300e+004
8.380000e+001, 9.794900e+004
8.390000e+001, 9.784000e+004
8.400000e+001, 9.753000e+004
8.410000e+001, 9.820600e+004
8.420000e+001, 9.796100e+004
8.430000e+001, 9.809500e+004
8.440000e+001, 9.785300e+004
8.450000e+001, 9.733300e+004
8.460000e+001, 9.778300e+004
8.470000e+001, 9.781800e+004
8.480000e+001, 9.804100e+004
8.490000e+001, 9.847600e+004
8.500000e+001, 9.782300e+004
8.510000e+001, 9.790500e+004
8.520000e+001, 9.822500e+004
8.530000e+001, 9.809200e+004
8.540000e+001, 9.798700e+004
8.550000e+001, 9.771800e+004
8.560000e+001, 9.772500e+004
8.570000e+001, 9.752400e+004
8.580000e+001, 9.768300e+004
8.590000e+001, 9.752800e+004
8.600000e+001, 9.690100e+004
8.610000e+001, 9.686900e+004
8.620000e+001, 9.678200e+004
8.630000e+001, 9.670700e+004
8.640000e+001, 9.693100e+004
8.650000e+001, 9.636700e+004
8.660000e+001, 9.606700e+004
8.670000e+001, 9.633600e+004
8.680000e+001, 9.603100e+004
8.690000e+001, 9.609100e+004
8.700000e+001, 9.704200e+004
8.710000e+001, 9.680100e+004
8.720000e+001, 9.650400e+004
8.730000e+001, 9.612700e+004
8.740000e+001, 9.647000e+004
8.750000e+001, 9.651800e+004
8.760000e+001, 9.666200e+004
8.770000e+001, 9.638000e+004
8.780000e+001, 9.674700e+004
8.790000e+001, 9.671500e+004
8.800000e+001, 9.647200e+004
8.810000e+001, 9.658600e+004
8.820000e+001, 9.650100e+004
8.830000e+001, 9.689500e+004
8.840000e+001, 9.717400e+004
8.850000e+001, 9.754600e+004
8.860000e+001, 9.746200e+004
8.870000e+001, 9.721300e+004
8.880000e+001, 9.785900e+004
8.890000e+001, 9.749100e+004
8.900000e+001, 9.750800e+004
8.910000e+001, 9.791000e+004
8.920000e+001, 9.734500e+004
8.930000e+001, 9.733100e+004
8.940000e+001, 9.739200e+004
8.950000e+001, 9.771800e+004
8.960000e+001, 9.714300e+004
8.970000e+001, 9.723300e+004
8.980000e+001, 9.774300e+004
8.990000e+001, 9.749900e+004
9.000000e+001, 9.679600e+004
9.010000e+001, 9.756700e+004
9.020000e+001, 9.815900e+004
9.030000e+001, 9.823400e+004
9.040000e+001, 9.796000e+004
9.050000e+001, 9.785000e+004
9.060000e+001, 9.858200e+004
9.070000e+001, 9.873800e+004
9.080000e+001, 9.885200e+004
9.090000e+001, 9.948200e+004
9.100000e+001, 9.906500e+004
9.110000e+001, 9.897200e+004
9.120000e+001, 9.927900e+004
9.130000e+001, 9.967800e+004
9.140000e+001, 1.002520e+005
9.150000e+001, 1.008450e+005
9.160000e+001, 1.004000e+005
9.170000e+001, 1.008970e+005
9.180000e+001, 1.007690e+005
9.190000e+001, 1.009820e+005
9.200000e+001, 1.019040e+005
9.210000e+001, 1.018300e+005
9.220000e+001, 1.022840e+005
9.230000e+001, 1.029030e+005
9.240000e+001, 1.026210e+005
9.250000e+001, 1.031200e+005
9.260000e+001, 1.036960e+005
9.270000e+001, 1.043590e+005
9.280000e+001, 1.039850e+005
9.290000e+001, 1.043070e+005
9.300000e+001, 1.050490e+005
9.310000e+001, 1.056640e+005
9.320000e+001, 1.058020e+005
9.330000e+001, 1.058960e+005
9.340000e+001, 1.069310e+005
9.350000e+001, 1.066420e+005
9.360000e+001, 1.070800e+005
9.370000e+001, 1.068540e+005
9.380000e+001, 1.074520e+005
9.390000e+001, 1.079210e+005
9.400000e+001, 1.081620e+005
9.410000e+001, 1.083110e+005
9.420000e+001, 1.090370e+005
9.430000e+001, 1.098050e+005
9.440000e+001, 1.097700e+005
9.450000e+001, 1.095770e+005
9.460000e+001, 1.105050e+005
9.470000e+001, 1.109940e+005
9.480000e+001, 1.110520e+005
9.490000e+001, 1.117590e+005
9.500000e+001, 1.120210e+005
9.510000e+001, 1.123800e+005
9.520000e+001, 1.128030e+005
9.530000e+001, 1.137650e+005
9.540000e+001, 1.141400e+005
9.550000e+001, 1.144490e+005
9.560000e+001, 1.147600e+005
9.570000e+001, 1.149000e+005
9.580000e+001, 1.151150e+005
9.590000e+001, 1.161470e+005
9.600000e+001, 1.154830e+005
9.610000e+001, 1.154710e+005
9.620000e+001, 1.159210e+005
9.630000e+001, 1.155200e+005
9.640000e+001, 1.167780e+005
9.650000e+001, 1.158460e+005
9.660000e+001, 1.158840e+005
9.670000e+001, 1.163250e+005
9.680000e+001, 1.162300e+005
9.690000e+001, 1.167810e+005
9.700000e+001, 1.168430e+005
9.710000e+001, 1.171940e+005
9.720000e+001, 1.165640e+005
9.730000e+001, 1.165170e+005
9.740000e+001, 1.165340e+005
9.750000e+001, 1.166460e+005
9.760000e+001, 1.163320e+005
9.770000e+001, 1.157930e+005
9.780000e+001, 1.163430e+005
9.790000e+001, 1.157140e+005
9.800000e+001, 1.158080e+005
9.810000e+001, 1.157410e+005
9.820000e+001, 1.157910e+005
9.830000e+001, 1.155420e+005
9.840000e+001, 1.148800e+005
9.850000e+001, 1.147610e+005
9.860000e+001, 1.149670e+005
9.870000e+001, 1.149650e+005
9.880000e+001, 1.143220e+005
9.890000e+001, 1.137190e+005
9.900000e+001, 1.130520e+005
9.910000e+001, 1.125370e+005
9.920000e+001, 1.119930e+005
9.930000e+001, 1.119530e+005
9.940000e+001, 1.110150e+005
9.950000e+001, 1.108190e+005
9.960000e+001, 1.106720e+005
9.970000e+001, 1.100110e+005
9.980000e+001, 1.093500e+005
9.990000e+001, 1.091550e+005
1.000000e+002, 1.090480e+005
1.001000e+002, 1.079850e+005
1.002000e+002, 1.066410e+005
1.003000e+002, 1.062730e+005
1.004000e+002, 1.053950e+005
1.005000e+002, 1.054000e+005
1.006000e+002, 1.040290e+005
1.007000e+002, 1.043530e+005
1.008000e+002, 1.036550e+005
1.009000e+002, 1.028670e+005
1.010000e+002, 1.024040e+005
1.011000e+002, 1.016330e+005
1.012000e+002, 1.014400e+005
1.013000e+002, 1.001800e+005
1.014000e+002, 9.950200e+004
1.015000e+002, 9.940200e+004
1.016000e+002, 9.872300e+004
1.017000e+002, 9.820200e+004
1.018000e+002, 9.786800e+004
1.019000e+002, 9.723100e+004
1.020000e+002, 9.690200e+004
1.021000e+002, 9.550300e+004
1.022000e+002, 9.558200e+004
1.023000e+002, 9.446300e+004
1.024000e+002, 9.412400e+004
1.025000e+002, 9.410200e+004
1.026000e+002, 9.383600e+004
1.027000e+002, 9.351900e+004
1.028000e+002, 9.275600e+004
1.029000e+002, 9.249100e+004
1.030000e+002, 9.308900e+004
1.031000e+002, 9.242300e+004
1.032000e+002, 9.203100e+004
1.033000e+002, 9.158300e+004
1.034000e+002, 9.136900e+004
1.035000e+002, 9.107800e+004
1.036000e+002, 9.071600e+004
1.037000e+002, 9.025100e+004
1.038000e+002, 9.027000e+004
1.039000e+002, 9.013300e+004
1.040000e+002, 8.987700e+004
1.041000e+002, 8.989200e+004
1.042000e+002, 8.908000e+004
1.043000e+002, 9.002300e+004
1.044000e+002, 8.956400e+004
1.045000e+002, 8.929900e+004
1.046000e+002, 8.901000e+004
1.047000e+002, 8.878100e+004
1.048000e+002, 8.876300e+004
1.049000e+002, 8.895000e+004
1.050000e+002, 8.844200e+004
1.051000e+002, 8.873200e+004
1.052000e+002, 8.862900e+004
1.053000e+002, 8.873400e+004
1.054000e+002, 8.818300e+004
1.055000e+002, 8.800000e+004
1.056000e+002, 8.859100e+004
1.057000e+002, 8.825600e+004
1.058000e+002, 8.822000e+004
1.059000e+002, 8.866200e+004
1.060000e+002, 8.801800e+004
1.061000e+002, 8.781800e+004
1.062000e+002, 8.821500e+004
1.063000e+002, 8.739400e+004
1.064000e+002, 8.762500e+004
1.065000e+002, 8.794300e+004
1.066000e+002, 8.775800e+004
1.067000e+002, 8.798300e+004
1.068000e+002, 8.749200e+004
1.069000e+002, 8.779300e+004
1.070000e+002, 8.741100e+004
1.071000e+002, 8.735100e+004
1.072000e+002, 8.754000e+004
1.073000e+002, 8.773500e+004
1.074000e+002, 8.773200e+004
1.075000e+002, 8.727100e+004
1.076000e+002, 8.783400e+004
1.077000e+002, 8.823500e+004
1.078000e+002, 8.781200e+004
1.079000e+002, 8.751400e+004
1.080000e+002, 8.769600e+004
1.081000e+002, 8.727000e+004
1.082000e+002, 8.822300e+004
1.083000e+002, 8.805300e+004
1.084000e+002, 8.822800e+004
1.085000e+002, 8.812800e+004
1.086000e+002, 8.884400e+004
1.087000e+002, 8.869800e+004
1.088000e+002, 8.871700e+004
1.089000e+002, 8.878000e+004
1.090000e+002, 8.829300e+004
1.091000e+002, 8.849100e+004
1.092000e+002, 8.886200e+004
1.093000e+002, 8.872300e+004
1.094000e+002, 8.871900e+004
1.095000e+002, 8.875700e+004
1.096000e+002, 8.861300e+004
1.097000e+002, 8.882200e+004
1.098000e+002, 8.836900e+004
1.099000e+002, 8.815400e+004
1.100000e+002, 8.868600e+004
1.101000e+002, 8.880400e+004
1.102000e+002, 8.915200e+004
1.103000e+002, 8.858200e+004
1.104000e+002, 8.821400e+004
1.105000e+002, 8.812700e+004
1.106000e+002, 8.855600e+004
1.107000e+002, 8.912300e+004
1.108000e+002, 8.911900e+004
1.109000e+002, 8.873400e+004
1.110000e+002, 8.880500e+004
1.111000e+002, 8.847200e+004
1.112000e+002, 8.869200e+004
1.113000e+002, 8.901500e+004
1.114000e+002, 8.827800e+004
1.115000e+002, 8.831900e+004
1.116000e+002, 8.869000e+004
1.117000e+002, 8.859400e+004
1.118000e+002, 8.810100e+004
1.119000e+002, 8.777500e+004
1.120000e+002, 8.809100e+004
1.121000e+002, 8.842100e+004
1.122000e+002, 8.830700e+004
1.123000e+002, 8.804100e+004
1.124000e+002, 8.807100e+004
1.125000e+002, 8.785700e+004
1.126000e+002, 8.791100e+004
1.127000e+002, 8.800300e+004
1.128000e+002, 8.799900e+004
1.129000e+002, 8.787900e+004
1.130000e+002, 8.724500e+004
1.131000e+002, 8.765600e+004
1.132000e+002, 8.755600e+004
1.133000e+002, 8.737900e+004
1.134000e+002, 8.740400e+004
1.135000e+002, 8.690400e+004
1.136000e+002, 8.746200e+004
1.137000e+002, 8.746300e+004
1.138000e+002, 8.728900e+004
1.139000e+002, 8.719300e+004
1.140000e+002, 8.730800e+004
1.141000e+002, 8.680300e+004
1.142000e+002, 8.649100e+004
1.143000e+002, 8.680000e+004
1.144000e+002, 8.668000e+004
1.145000e+002, 8.691700e+004
1.146000e+002, 8.631100e+004
1.147000e+002, 8.682900e+004
1.148000e+002, 8.646500e+004
1.149000e+002, 8.618200e+004
1.150000e+002, 8.599400e+004
1.151000e+002, 8.612500e+004
1.152000e+002, 8.597100e+004
1.153000e+002, 8.570000e+004
1.154000e+002, 8.610800e+004
1.155000e+002, 8.550600e+004
1.156000e+002, 8.538300e+004
1.157000e+002, 8.544400e+004
1.158000e+002, 8.512500e+004
1.159000e+002, 8.538400e+004
1.160000e+002, 8.522300e+004
1.161000e+002, 8.471700e+004
1.162000e+002, 8.535400e+004
1.163000e+002, 8.481300e+004
1.164000e+002, 8.498700e+004
1.165000e+002, 8.453200e+004
1.166000e+002, 8.453000e+004
1.167000e+002, 8.441000e+004
1.168000e+002, 8.448800e+004
1.169000e+002, 8.407000e+004
1.170000e+002, 8.360700e+004
1.171000e+002, 8.345200e+004
1.172000e+002, 8.353800e+004
1.173000e+002, 8.335500e+004
1.174000e+002, 8.373500e+004
1.175000e+002, 8.338100e+004
1.176000e+002, 8.334500e+004
1.177000e+002, 8.367900e+004
1.178000e+002, 8.310400e+004
1.179000e+002, 8.355300e+004
1.180000e+002, 8.325000e+004
1.181000e+002, 8.286700e+004
1.182000e+002, 8.269600e+004
1.183000e+002, 8.325100e+004
1.184000e+002, 8.347900e+004
1.185000e+002, 8.329700e+004
1.186000e+002, 8.347800e+004
1.187000e+002, 8.316500e+004
1.188000e+002, 8.296300e+004
1.189000e+002, 8.298200e+004
1.190000e+002, 8.279600e+004
1.191000e+002, 8.261500e+004
1.192000e+002, 8.261200e+004
1.193000e+002, 8.293900e+004
1.194000e+002, 8.261100e+004
1.195000e+002, 8.244000e+004
1.196000e+002, 8.211700e+004
1.197000e+002, 8.158700e+004
1.198000e+002, 8.181300e+004
1.199000e+002, 8.182300e+004
1.200000e+002, 8.148900e+004
1.201000e+002, 8.117100e+004
1.202000e+002, 8.106500e+004
1.203000e+002, 8.106500e+004
1.204000e+002, 8.150200e+004
1.205000e+002, 8.124000e+004
1.206000e+002, 8.115400e+004
1.207000e+002, 8.087700e+004
1.208000e+002, 8.087100e+004
1.209000e+002, 8.114400e+004
1.210000e+002, 8.106100e+004
1.211000e+002, 8.051700e+004
1.212000e+002, 8.088400e+004
1.213000e+002, 8.057600e+004
1.214000e+002, 8.108300e+004
1.215000e+002, 8.031900e+004
1.216000e+002, 8.088000e+004
1.217000e+002, 8.075300e+004
1.218000e+002, 8.088600e+004
1.219000e+002, 8.107400e+004
1.220000e+002, 8.060400e+004
1.221000e+002, 8.120400e+004
1.222000e+002, 8.092000e+004
1.223000e+002, 8.078200e+004
1.224000e+002, 8.109000e+004
1.225000e+002, 8.110600e+004
1.226000e+002, 8.084400e+004
1.227000e+002, 8.099700e+004
